Temperature (K)	Pressure (MPa)	Density (l, kg/m3)	Volume (l, m3/kg)	Internal Energy (l, kJ/kg)	Enthalpy (l, kJ/kg)	Entropy (l, J/g*K)	Cv (l, J/g*K)	Cp (l, J/g*K)	Sound Spd. (l, m/s)	Joule-Thomson (l, K/MPa)	Viscosity (l, uPa*s)	Therm. Cond. (l, W/m*K)	Surf. Tension (l, N/m)	Density (v, kg/m3)	Volume (v, m3/kg)	Internal Energy (v, kJ/kg)	Enthalpy (v, kJ/kg)	Entropy (v, J/g*K)	Cv (v, J/g*K)	Cp (v, J/g*K)	Sound Spd. (v, m/s)	Joule-Thomson (v, K/MPa)	Viscosity (v, uPa*s)	Therm. Cond. (v, W/m*K)
275.00	0.00069845	999.89	0.0010001	7.7590	7.7597	0.028309	4.2133	4.2139	1411.4	-0.23965	1682.0	0.56453	0.075388	0.0055066	181.60	2377.5	2504.3	9.1066	1.4199	1.8862	410.33	558.89	9.2596	0.017168
276.00	0.00075006	999.91	0.0010001	11.971	11.972	0.043600	4.2108	4.2110	1416.1	-0.23871	1627.1	0.56643	0.075247	0.0058922	169.71	2378.8	2506.1	9.0804	1.4208	1.8872	411.05	541.41	9.2835	0.017222
277.00	0.00080501	999.92	0.0010001	16.181	16.182	0.058825	4.2083	4.2083	1420.8	-0.23780	1575.0	0.56834	0.075105	0.0063013	158.70	2380.2	2508.0	9.0544	1.4216	1.8882	411.77	524.52	9.3077	0.017276
278.00	0.00086349	999.92	0.0010001	20.388	20.389	0.073985	4.2057	4.2058	1425.3	-0.23690	1525.5	0.57024	0.074963	0.0067349	148.48	2381.6	2509.8	9.0287	1.4224	1.8893	412.49	508.21	9.3320	0.017330
279.00	0.00092569	999.90	0.0010001	24.593	24.594	0.089083	4.2030	4.2035	1429.8	-0.23601	1478.5	0.57214	0.074820	0.0071945	139.00	2383.0	2511.6	9.0031	1.4233	1.8903	413.21	492.46	9.3567	0.017386
280.00	0.00099182	999.86	0.0010001	28.795	28.796	0.10412	4.2003	4.2014	1434.1	-0.23515	1433.7	0.57404	0.074677	0.0076812	130.19	2384.3	2513.4	8.9779	1.4242	1.8913	413.92	477.26	9.3815	0.017442
281.00	0.0010621	999.81	0.0010002	32.996	32.997	0.11909	4.1974	4.1994	1438.3	-0.23430	1391.0	0.57593	0.074533	0.0081963	122.01	2385.7	2515.3	8.9528	1.4250	1.8924	414.64	462.58	9.4066	0.017498
282.00	0.0011367	999.75	0.0010003	37.194	37.195	0.13401	4.1945	4.1975	1442.5	-0.23346	1350.4	0.57783	0.074388	0.0087414	114.40	2387.1	2517.1	8.9280	1.4259	1.8935	415.35	448.41	9.4319	0.017555
283.00	0.0012159	999.67	0.0010003	41.391	41.392	0.14886	4.1914	4.1958	1446.5	-0.23263	1311.6	0.57972	0.074243	0.0093178	107.32	2388.4	2518.9	8.9034	1.4268	1.8945	416.06	434.73	9.4573	0.017613
284.00	0.0012999	999.58	0.0010004	45.586	45.587	0.16366	4.1884	4.1942	1450.4	-0.23182	1274.6	0.58160	0.074097	0.0099270	100.74	2389.8	2520.8	8.8791	1.4277	1.8956	416.77	421.54	9.4831	0.017671
285.00	0.0013890	999.47	0.0010005	49.779	49.780	0.17840	4.1852	4.1927	1454.3	-0.23102	1239.3	0.58348	0.073951	0.010571	94.602	2391.2	2522.6	8.8549	1.4285	1.8967	417.48	408.81	9.5090	0.017729
286.00	0.0014835	999.35	0.0010006	53.971	53.973	0.19308	4.1820	4.1914	1458.0	-0.23024	1205.5	0.58534	0.073804	0.011250	88.887	2392.6	2524.4	8.8310	1.4294	1.8978	418.18	396.54	9.5351	0.017788
287.00	0.0015835	999.22	0.0010008	58.162	58.163	0.20771	4.1787	4.1901	1461.7	-0.22946	1173.1	0.58721	0.073656	0.011967	83.560	2393.9	2526.2	8.8073	1.4303	1.8989	418.89	384.70	9.5614	0.017848
288.00	0.0016894	999.08	0.0010009	62.351	62.353	0.22228	4.1753	4.1890	1465.2	-0.22870	1142.1	0.58906	0.073508	0.012724	78.592	2395.3	2528.1	8.7838	1.4312	1.9000	419.59	373.28	9.5879	0.017908
289.00	0.0018015	998.92	0.0010011	66.540	66.542	0.23680	4.1719	4.1879	1468.7	-0.22794	1112.5	0.59090	0.073359	0.013522	73.955	2396.7	2529.9	8.7605	1.4321	1.9012	420.29	362.26	9.6146	0.017969
290.00	0.0019200	998.76	0.0010012	70.727	70.729	0.25126	4.1684	4.1869	1472.1	-0.22720	1084.0	0.59273	0.073210	0.014363	69.625	2398.0	2531.7	8.7374	1.4330	1.9023	420.99	351.65	9.6414	0.018031
291.00	0.0020453	998.58	0.0010014	74.914	74.916	0.26568	4.1649	4.1860	1475.4	-0.22647	1056.7	0.59455	0.073060	0.015248	65.581	2399.4	2533.5	8.7145	1.4339	1.9034	421.69	341.41	9.6685	0.018092
292.00	0.0021778	998.39	0.0010016	79.099	79.101	0.28003	4.1612	4.1852	1478.6	-0.22574	1030.5	0.59636	0.072910	0.016181	61.801	2400.8	2535.3	8.6918	1.4348	1.9046	422.38	331.54	9.6957	0.018155
293.00	0.0023177	998.19	0.0010018	83.284	83.286	0.29434	4.1576	4.1845	1481.7	-0.22503	1005.3	0.59815	0.072759	0.017162	58.267	2402.1	2537.2	8.6693	1.4357	1.9057	423.08	322.03	9.7231	0.018218
294.00	0.0024654	997.98	0.0010020	87.468	87.471	0.30860	4.1539	4.1838	1484.8	-0.22432	981.14	0.59993	0.072607	0.018195	54.960	2403.5	2539.0	8.6471	1.4367	1.9069	423.77	312.85	9.7507	0.018281
295.00	0.0026212	997.76	0.0010022	91.652	91.654	0.32280	4.1501	4.1832	1487.7	-0.22362	957.87	0.60169	0.072455	0.019281	51.865	2404.8	2540.8	8.6250	1.4376	1.9081	424.46	304.01	9.7784	0.018345
296.00	0.0027856	997.53	0.0010025	95.835	95.837	0.33696	4.1463	4.1826	1490.6	-0.22293	935.48	0.60344	0.072302	0.020422	48.966	2406.2	2542.6	8.6031	1.4385	1.9092	425.15	295.49	9.8063	0.018410
297.00	0.0029590	997.29	0.0010027	100.02	100.02	0.35106	4.1424	4.1821	1493.4	-0.22225	913.92	0.60518	0.072149	0.021621	46.251	2407.6	2544.4	8.5814	1.4394	1.9104	425.84	287.27	9.8344	0.018475
298.00	0.0031417	997.04	0.0010030	104.20	104.20	0.36512	4.1385	4.1817	1496.1	-0.22157	893.15	0.60689	0.071995	0.022881	43.705	2408.9	2546.2	8.5599	1.4404	1.9116	426.52	279.35	9.8626	0.018540
299.00	0.0033342	996.78	0.0010032	108.38	108.38	0.37913	4.1345	4.1813	1498.8	-0.22090	873.14	0.60859	0.071841	0.024203	41.318	2410.3	2548.0	8.5385	1.4413	1.9129	427.21	271.71	9.8910	0.018607
300.00	0.0035368	996.51	0.0010035	112.56	112.56	0.39309	4.1305	4.1809	1501.4	-0.22024	853.84	0.61028	0.071686	0.025590	39.078	2411.6	2549.9	8.5174	1.4422	1.9141	427.89	264.35	9.9195	0.018673
301.00	0.0037501	996.23	0.0010038	116.74	116.75	0.40700	4.1264	4.1806	1503.9	-0.21958	835.23	0.61194	0.071530	0.027045	36.976	2413.0	2551.7	8.4964	1.4432	1.9153	428.57	257.25	9.9482	0.018740
302.00	0.0039745	995.95	0.0010041	120.92	120.93	0.42087	4.1223	4.1803	1506.3	-0.21893	817.26	0.61359	0.071374	0.028570	35.002	2414.4	2553.5	8.4756	1.4441	1.9166	429.25	250.41	9.9770	0.018808
303.00	0.0042105	995.65	0.0010044	125.10	125.11	0.43469	4.1182	4.1801	1508.6	-0.21829	799.91	0.61522	0.071218	0.030169	33.147	2415.7	2555.3	8.4550	1.4451	1.9178	429.93	243.81	10.006	0.018876
304.00	0.0044586	995.35	0.0010047	129.28	129.29	0.44846	4.1140	4.1799	1510.9	-0.21765	783.14	0.61682	0.071060	0.031844	31.403	2417.1	2557.1	8.4346	1.4461	1.9191	430.61	237.45	10.035	0.018945
305.00	0.0047193	995.03	0.0010050	133.46	133.47	0.46219	4.1097	4.1798	1513.1	-0.21702	766.95	0.61841	0.070903	0.033598	29.764	2418.4	2558.9	8.4144	1.4470	1.9204	431.28	231.32	10.064	0.019014
306.00	0.0049932	994.71	0.0010053	137.64	137.65	0.47587	4.1054	4.1797	1515.3	-0.21639	751.28	0.61998	0.070744	0.035434	28.222	2419.8	2560.7	8.3943	1.4480	1.9217	431.95	225.40	10.094	0.019084
307.00	0.0052807	994.38	0.0010057	141.82	141.83	0.48950	4.1011	4.1796	1517.4	-0.21577	736.13	0.62153	0.070586	0.037355	26.770	2421.1	2562.5	8.3744	1.4490	1.9230	432.62	219.69	10.123	0.019154
308.00	0.0055825	994.04	0.0010060	146.00	146.01	0.50310	4.0967	4.1795	1519.4	-0.21515	721.47	0.62305	0.070426	0.039365	25.403	2422.5	2564.3	8.3546	1.4500	1.9243	433.29	214.18	10.153	0.019225
309.00	0.0058991	993.70	0.0010063	150.18	150.19	0.51664	4.0923	4.1795	1521.3	-0.21454	707.28	0.62456	0.070266	0.041466	24.116	2423.8	2566.1	8.3351	1.4510	1.9257	433.96	208.87	10.183	0.019297
310.00	0.0062311	993.34	0.0010067	154.36	154.37	0.53015	4.0879	4.1795	1523.2	-0.21393	693.54	0.62605	0.070106	0.043663	22.903	2425.2	2567.9	8.3156	1.4520	1.9270	434.63	203.74	10.213	0.019369
311.00	0.0065792	992.98	0.0010071	158.54	158.55	0.54361	4.0834	4.1795	1525.0	-0.21332	680.22	0.62751	0.069944	0.045958	21.759	2426.5	2569.7	8.2964	1.4530	1.9284	435.29	198.80	10.243	0.019441
312.00	0.0069440	992.61	0.0010074	162.72	162.73	0.55702	4.0789	4.1796	1526.8	-0.21272	667.32	0.62895	0.069783	0.048355	20.680	2427.8	2571.5	8.2773	1.4540	1.9298	435.95	194.02	10.273	0.019514
313.00	0.0073261	992.23	0.0010078	166.90	166.91	0.57040	4.0744	4.1796	1528.5	-0.21212	654.81	0.63037	0.069621	0.050858	19.663	2429.2	2573.2	8.2584	1.4551	1.9312	436.61	189.41	10.303	0.019588
314.00	0.0077262	991.85	0.0010082	171.08	171.09	0.58373	4.0698	4.1797	1530.1	-0.21153	642.68	0.63177	0.069458	0.053470	18.702	2430.5	2575.0	8.2396	1.4561	1.9326	437.27	184.96	10.333	0.019662
315.00	0.0081451	991.46	0.0010086	175.26	175.27	0.59702	4.0652	4.1798	1531.7	-0.21094	630.91	0.63315	0.069295	0.056195	17.795	2431.9	2576.8	8.2210	1.4572	1.9341	437.93	180.66	10.364	0.019736
316.00	0.0085834	991.06	0.0010090	179.44	179.45	0.61027	4.0605	4.1800	1533.2	-0.21035	619.49	0.63450	0.069131	0.059038	16.938	2433.2	2578.6	8.2025	1.4583	1.9356	438.58	176.51	10.394	0.019811
317.00	0.0090418	990.65	0.0010094	183.62	183.63	0.62348	4.0558	4.1802	1534.7	-0.20977	608.41	0.63584	0.068967	0.062001	16.129	2434.5	2580.4	8.1842	1.4593	1.9371	439.24	172.50	10.425	0.019887
318.00	0.0095212	990.24	0.0010099	187.80	187.81	0.63664	4.0511	4.1803	1536.1	-0.20919	597.64	0.63715	0.068802	0.065090	15.363	2435.9	2582.2	8.1660	1.4604	1.9386	439.89	168.62	10.456	0.019963
319.00	0.010022	989.81	0.0010103	191.98	191.99	0.64977	4.0464	4.1805	1537.4	-0.20861	587.18	0.63844	0.068636	0.068309	14.639	2437.2	2583.9	8.1480	1.4616	1.9401	440.54	164.87	10.487	0.020040
320.00	0.010546	989.39	0.0010107	196.16	196.17	0.66285	4.0416	4.1807	1538.7	-0.20804	577.02	0.63971	0.068470	0.071662	13.954	2438.5	2585.7	8.1302	1.4627	1.9417	441.18	161.25	10.518	0.020117
321.00	0.011093	988.95	0.0010112	200.34	200.35	0.67590	4.0368	4.1810	1539.9	-0.20747	567.15	0.64095	0.068304	0.075152	13.306	2439.9	2587.5	8.1125	1.4638	1.9433	441.83	157.75	10.549	0.020195
322.00	0.011664	988.51	0.0010116	204.52	204.53	0.68890	4.0320	4.1812	1541.1	-0.20690	557.55	0.64217	0.068137	0.078786	12.693	2441.2	2589.3	8.0949	1.4650	1.9449	442.47	154.37	10.580	0.020274
323.00	0.012260	988.06	0.0010121	208.70	208.71	0.70187	4.0271	4.1815	1542.3	-0.20633	548.21	0.64337	0.067969	0.082567	12.111	2442.5	2591.0	8.0774	1.4661	1.9465	443.11	151.09	10.612	0.020353
324.00	0.012882	987.61	0.0010125	212.88	212.90	0.71479	4.0223	4.1818	1543.3	-0.20576	539.13	0.64455	0.067801	0.086500	11.561	2443.9	2592.8	8.0601	1.4673	1.9482	443.75	147.92	10.643	0.020432
325.00	0.013531	987.15	0.0010130	217.07	217.08	0.72768	4.0174	4.1821	1544.3	-0.20520	530.29	0.64571	0.067632	0.090590	11.039	2445.2	2594.6	8.0430	1.4685	1.9499	444.39	144.85	10.675	0.020512
326.00	0.014208	986.68	0.0010135	221.25	221.26	0.74053	4.0124	4.1824	1545.3	-0.20464	521.69	0.64685	0.067463	0.094842	10.544	2446.5	2596.3	8.0260	1.4697	1.9516	445.02	141.89	10.706	0.020593
327.00	0.014914	986.21	0.0010140	225.43	225.45	0.75334	4.0075	4.1827	1546.2	-0.20408	513.32	0.64796	0.067293	0.099261	10.074	2447.8	2598.1	8.0091	1.4710	1.9533	445.66	139.01	10.738	0.020674
328.00	0.015649	985.73	0.0010145	229.61	229.63	0.76611	4.0025	4.1831	1547.1	-0.20352	505.16	0.64905	0.067123	0.10385	9.6291	2449.1	2599.8	7.9923	1.4722	1.9551	446.29	136.23	10.770	0.020756
329.00	0.016415	985.24	0.0010150	233.80	233.81	0.77884	3.9976	4.1835	1547.9	-0.20296	497.22	0.65013	0.066952	0.10862	9.2064	2450.5	2601.6	7.9757	1.4735	1.9569	446.92	133.53	10.801	0.020839
330.00	0.017213	984.75	0.0010155	237.98	238.00	0.79154	3.9925	4.1838	1548.7	-0.20241	489.49	0.65118	0.066781	0.11357	8.8050	2451.8	2603.3	7.9592	1.4748	1.9587	447.54	130.92	10.833	0.020922
331.00	0.018044	984.25	0.0010160	242.16	242.18	0.80420	3.9875	4.1842	1549.4	-0.20185	481.95	0.65220	0.066609	0.11871	8.4238	2453.1	2605.1	7.9429	1.4761	1.9606	448.17	128.39	10.865	0.021005
332.00	0.018909	983.75	0.0010165	246.35	246.37	0.81682	3.9825	4.1846	1550.1	-0.20130	474.60	0.65321	0.066437	0.12404	8.0616	2454.4	2606.8	7.9267	1.4774	1.9625	448.79	125.94	10.898	0.021089
333.00	0.019808	983.24	0.0010170	250.53	250.55	0.82941	3.9774	4.1851	1550.7	-0.20075	467.44	0.65420	0.066264	0.12958	7.7174	2455.7	2608.6	7.9106	1.4787	1.9645	449.41	123.56	10.930	0.021174
334.00	0.020744	982.72	0.0010176	254.72	254.74	0.84196	3.9723	4.1855	1551.3	-0.20020	460.45	0.65517	0.066091	0.13532	7.3901	2457.0	2610.3	7.8946	1.4801	1.9664	450.03	121.25	10.962	0.021259
335.00	0.021718	982.20	0.0010181	258.90	258.93	0.85447	3.9672	4.1860	1551.9	-0.19964	453.64	0.65611	0.065917	0.14127	7.0788	2458.3	2612.1	7.8787	1.4815	1.9684	450.64	119.01	10.994	0.021345
336.00	0.022730	981.67	0.0010187	263.09	263.11	0.86695	3.9621	4.1864	1552.3	-0.19909	446.99	0.65704	0.065743	0.14743	6.7827	2459.6	2613.8	7.8630	1.4829	1.9705	451.26	116.84	11.027	0.021432
337.00	0.023781	981.14	0.0010192	267.28	267.30	0.87939	3.9570	4.1869	1552.8	-0.19855	440.51	0.65795	0.065568	0.15382	6.5009	2460.9	2615.5	7.8474	1.4843	1.9726	451.87	114.73	11.059	0.021519
338.00	0.024874	980.60	0.0010198	271.46	271.49	0.89179	3.9519	4.1874	1553.2	-0.19800	434.18	0.65883	0.065392	0.16045	6.2327	2462.2	2617.2	7.8319	1.4858	1.9747	452.47	112.69	11.092	0.021607
339.00	0.026009	980.05	0.0010204	275.65	275.68	0.90417	3.9467	4.1879	1553.6	-0.19745	428.00	0.65970	0.065216	0.16730	5.9772	2463.5	2619.0	7.8165	1.4873	1.9768	453.08	110.70	11.124	0.021695
340.00	0.027188	979.50	0.0010209	279.84	279.87	0.91650	3.9416	4.1885	1553.9	-0.19690	421.97	0.66055	0.065040	0.17440	5.7339	2464.8	2620.7	7.8013	1.4888	1.9790	453.68	108.77	11.157	0.021784
341.00	0.028411	978.95	0.0010215	284.03	284.06	0.92880	3.9364	4.1890	1554.2	-0.19635	416.08	0.66138	0.064863	0.18175	5.5020	2466.1	2622.4	7.7862	1.4903	1.9813	454.28	106.89	11.190	0.021873
342.00	0.029681	978.39	0.0010221	288.22	288.25	0.94107	3.9312	4.1896	1554.4	-0.19580	410.33	0.66218	0.064685	0.18936	5.2810	2467.4	2624.1	7.7711	1.4919	1.9835	454.88	105.07	11.223	0.021963
343.00	0.030999	977.82	0.0010227	292.40	292.44	0.95330	3.9260	4.1901	1554.6	-0.19525	404.71	0.66298	0.064508	0.19723	5.0703	2468.7	2625.8	7.7562	1.4934	1.9859	455.48	103.30	11.255	0.022054
344.00	0.032366	977.25	0.0010233	296.59	296.63	0.96550	3.9208	4.1907	1554.7	-0.19470	399.22	0.66375	0.064329	0.20537	4.8693	2469.9	2627.5	7.7414	1.4951	1.9882	456.07	101.58	11.288	0.022146
345.00	0.033783	976.67	0.0010239	300.79	300.82	0.97766	3.9156	4.1913	1554.9	-0.19415	393.85	0.66450	0.064150	0.21378	4.6776	2471.2	2629.3	7.7267	1.4967	1.9906	456.67	99.902	11.321	0.022238
346.00	0.035253	976.09	0.0010245	304.98	305.01	0.98979	3.9104	4.1919	1554.9	-0.19360	388.61	0.66524	0.063971	0.22249	4.4947	2472.5	2631.0	7.7122	1.4983	1.9931	457.25	98.272	11.354	0.022330
347.00	0.036776	975.50	0.0010251	309.17	309.21	1.0019	3.9052	4.1926	1555.0	-0.19305	383.48	0.66595	0.063791	0.23148	4.3200	2473.8	2632.7	7.6977	1.5000	1.9956	457.84	96.686	11.388	0.022423
348.00	0.038354	974.90	0.0010257	313.36	313.40	1.0140	3.8999	4.1932	1555.0	-0.19250	378.47	0.66665	0.063610	0.24077	4.1533	2475.1	2634.3	7.6833	1.5018	1.9981	458.42	95.143	11.421	0.022517
349.00	0.039989	974.31	0.0010264	317.55	317.60	1.0260	3.8947	4.1939	1554.9	-0.19195	373.56	0.66734	0.063429	0.25037	3.9940	2476.3	2636.0	7.6691	1.5035	2.0007	459.01	93.641	11.454	0.022612
350.00	0.041682	973.70	0.0010270	321.75	321.79	1.0380	3.8895	4.1946	1554.8	-0.19140	368.77	0.66800	0.063248	0.26029	3.8419	2477.6	2637.7	7.6549	1.5053	2.0033	459.58	92.178	11.487	0.022707
351.00	0.043435	973.09	0.0010277	325.94	325.99	1.0500	3.8842	4.1953	1554.7	-0.19085	364.08	0.66865	0.063066	0.27053	3.6965	2478.9	2639.4	7.6409	1.5071	2.0060	460.16	90.753	11.521	0.022803
352.00	0.045249	972.48	0.0010283	330.14	330.18	1.0619	3.8790	4.1960	1554.5	-0.19029	359.49	0.66928	0.062883	0.28110	3.5575	2480.1	2641.1	7.6270	1.5089	2.0088	460.73	89.365	11.554	0.022899
353.00	0.047127	971.86	0.0010290	334.33	334.38	1.0738	3.8737	4.1968	1554.4	-0.18974	355.00	0.66990	0.062700	0.29201	3.4246	2481.4	2642.8	7.6131	1.5108	2.0116	461.30	88.012	11.587	0.022996
354.00	0.049070	971.24	0.0010296	338.53	338.58	1.0857	3.8685	4.1975	1554.1	-0.18918	350.60	0.67050	0.062517	0.30326	3.2975	2482.6	2644.4	7.5994	1.5127	2.0144	461.87	86.694	11.621	0.023094
355.00	0.051080	970.61	0.0010303	342.73	342.78	1.0975	3.8632	4.1983	1553.9	-0.18862	346.30	0.67108	0.062333	0.31487	3.1759	2483.9	2646.1	7.5857	1.5146	2.0173	462.44	85.409	11.654	0.023193
356.00	0.053158	969.97	0.0010310	346.93	346.98	1.1093	3.8580	4.1991	1553.6	-0.18806	342.09	0.67164	0.062149	0.32685	3.0595	2485.1	2647.8	7.5722	1.5166	2.0202	463.00	84.155	11.688	0.023292
357.00	0.055307	969.33	0.0010316	351.13	351.18	1.1211	3.8527	4.1999	1553.2	-0.18750	337.97	0.67220	0.061964	0.33920	2.9481	2486.4	2649.4	7.5588	1.5186	2.0232	463.56	82.933	11.721	0.023391
358.00	0.057527	968.69	0.0010323	355.32	355.38	1.1328	3.8475	4.2007	1552.8	-0.18694	333.93	0.67273	0.061778	0.35193	2.8414	2487.6	2651.1	7.5454	1.5206	2.0263	464.12	81.740	11.755	0.023492
359.00	0.059822	968.04	0.0010330	359.53	359.59	1.1446	3.8422	4.2016	1552.4	-0.18638	329.97	0.67325	0.061592	0.36506	2.7393	2488.9	2652.7	7.5321	1.5226	2.0294	464.67	80.576	11.789	0.023593
360.00	0.062194	967.39	0.0010337	363.73	363.79	1.1562	3.8369	4.2024	1552.0	-0.18581	326.10	0.67376	0.061406	0.37858	2.6414	2490.1	2654.4	7.5190	1.5247	2.0326	465.22	79.440	11.823	0.023695
361.00	0.064643	966.73	0.0010344	367.93	368.00	1.1679	3.8317	4.2033	1551.5	-0.18525	322.30	0.67425	0.061219	0.39251	2.5477	2491.3	2656.0	7.5059	1.5269	2.0358	465.77	78.331	11.856	0.023797
362.00	0.067172	966.06	0.0010351	372.13	372.20	1.1795	3.8264	4.2042	1551.0	-0.18468	318.58	0.67472	0.061032	0.40686	2.4578	2492.6	2657.7	7.4929	1.5290	2.0391	466.32	77.249	11.890	0.023900
363.00	0.069783	965.40	0.0010358	376.34	376.41	1.1911	3.8212	4.2051	1550.5	-0.18411	314.94	0.67518	0.060844	0.42164	2.3717	2493.8	2659.3	7.4800	1.5313	2.0424	466.86	76.191	11.924	0.024004
364.00	0.072478	964.72	0.0010366	380.54	380.62	1.2027	3.8159	4.2061	1549.9	-0.18354	311.37	0.67563	0.060656	0.43686	2.2891	2495.0	2660.9	7.4672	1.5335	2.0458	467.40	75.157	11.958	0.024108
365.00	0.075260	964.05	0.0010373	384.75	384.82	1.2142	3.8107	4.2070	1549.3	-0.18296	307.87	0.67606	0.060467	0.45253	2.2098	2496.2	2662.5	7.4545	1.5358	2.0493	467.93	74.148	11.992	0.024213
366.00	0.078129	963.36	0.0010380	388.95	389.03	1.2257	3.8055	4.2080	1548.6	-0.18238	304.43	0.67648	0.060278	0.46865	2.1338	2497.4	2664.2	7.4419	1.5381	2.0528	468.47	73.161	12.026	0.024319
367.00	0.081090	962.68	0.0010388	393.16	393.25	1.2372	3.8002	4.2090	1548.0	-0.18181	301.07	0.67689	0.060088	0.48524	2.0608	2498.7	2665.8	7.4294	1.5405	2.0564	469.00	72.196	12.060	0.024426
368.00	0.084142	961.98	0.0010395	397.37	397.46	1.2487	3.7950	4.2101	1547.3	-0.18122	297.77	0.67728	0.059898	0.50231	1.9908	2499.9	2667.4	7.4169	1.5428	2.0601	469.53	71.252	12.094	0.024533
369.00	0.087290	961.29	0.0010403	401.58	401.67	1.2601	3.7898	4.2111	1546.5	-0.18064	294.53	0.67766	0.059708	0.51986	1.9236	2501.1	2669.0	7.4046	1.5453	2.0638	470.05	70.330	12.128	0.024641
370.00	0.090535	960.59	0.0010410	405.79	405.88	1.2715	3.7846	4.2122	1545.8	-0.18005	291.36	0.67802	0.059517	0.53792	1.8590	2502.3	2670.6	7.3923	1.5478	2.0676	470.57	69.427	12.162	0.024750
371.00	0.093880	959.88	0.0010418	410.00	410.10	1.2829	3.7793	4.2133	1545.0	-0.17947	288.24	0.67838	0.059325	0.55648	1.7970	2503.5	2672.2	7.3801	1.5503	2.0715	471.09	68.544	12.196	0.024859
372.00	0.097326	959.17	0.0010426	414.21	414.32	1.2942	3.7741	4.2144	1544.1	-0.17887	285.19	0.67872	0.059133	0.57557	1.7374	2504.7	2673.8	7.3680	1.5528	2.0754	471.61	67.679	12.230	0.024969
373.00	0.10088	958.46	0.0010433	418.43	418.53	1.3055	3.7689	4.2155	1543.3	-0.17828	282.19	0.67904	0.058941	0.59518	1.6802	2505.8	2675.3	7.3559	1.5554	2.0794	472.12	66.833	12.264	0.025080
374.00	0.10453	957.74	0.0010441	422.64	422.75	1.3168	3.7637	4.2167	1542.4	-0.17768	279.24	0.67936	0.058748	0.61534	1.6251	2507.0	2676.9	7.3440	1.5581	2.0835	472.63	66.004	12.298	0.025191
375.00	0.10830	957.01	0.0010449	426.86	426.97	1.3281	3.7586	4.2178	1541.5	-0.17708	276.36	0.67966	0.058555	0.63605	1.5722	2508.2	2678.5	7.3321	1.5608	2.0877	473.13	65.193	12.332	0.025303
376.00	0.11218	956.29	0.0010457	431.08	431.19	1.3393	3.7534	4.2190	1540.5	-0.17648	273.52	0.67995	0.058361	0.65732	1.5213	2509.4	2680.0	7.3203	1.5635	2.0919	473.64	64.398	12.367	0.025416
